# Average Spectral response curve for IRAC 3.6 micron array
# Wave     Spectral Response
# microns  electrons / photon
3.081060        0.000647
3.082890        0.000693
3.084730        0.000587
3.086560        0.000602
3.088400        0.000562
3.090240        0.000644
3.092080        0.000770
3.093930        0.000536
3.095780        0.000604
3.097620        0.000754
3.099480        0.000616
3.101330        0.000700
3.103190        0.000709
3.105040        0.000599
3.106900        0.000799
3.108770        0.000999
3.110630        0.001006
3.112500        0.001224
3.114370        0.001505
3.116240        0.001622
3.118110        0.001997
3.119990        0.002527
3.121870        0.002879
3.123750        0.003375
3.125630        0.004117
3.127520        0.004853
3.129400        0.005878
3.131290        0.007288
3.133190        0.008724
3.135080        0.010517
3.136980        0.012770
3.138880        0.015204
3.140780        0.018316
3.142680        0.022090
3.144590        0.026318
3.146490        0.031478
3.148410        0.037443
3.150320        0.044456
3.152230        0.052789
3.154150        0.061800
3.156070        0.072132
3.157990        0.084325
3.159920        0.097751
3.161840        0.112318
3.163770        0.128129
3.165700        0.145642
3.167640        0.163835
3.169570        0.182403
3.171510        0.202680
3.173450        0.223104
3.175400        0.242560
3.177340        0.262041
3.179290        0.281419
3.181240        0.298198
3.183190        0.312781
3.185150        0.328188
3.187110        0.341058
3.189070        0.349933
3.191030        0.358142
3.192990        0.365491
3.194960        0.370071
3.196930        0.372419
3.198900        0.374116
3.200880        0.373759
3.202860        0.370911
3.204840        0.369039
3.206820        0.367754
3.208800        0.364884
3.210790        0.361647
3.212780        0.358033
3.214770        0.354554
3.216760        0.351958
3.218760        0.350599
3.220760        0.349466
3.222760        0.346048
3.224770        0.344447
3.226770        0.345227
3.228780        0.344299
3.230790        0.344332
3.232810        0.345355
3.234820        0.346314
3.236840        0.349056
3.238870        0.351217
3.240890        0.352913
3.242920        0.355695
3.244950        0.359192
3.246980        0.363661
3.249010        0.367334
3.251050        0.370818
3.253090        0.375631
3.255130        0.380227
3.257180        0.384773
3.259220        0.389754
3.261270        0.393817
3.263320        0.397413
3.265380        0.400502
3.267440        0.402880
3.269500        0.405907
3.271560        0.409766
3.273630        0.411492
3.275690        0.412805
3.277760        0.414661
3.279840        0.414907
3.281910        0.415747
3.283990        0.416254
3.286070        0.414985
3.288160        0.414163
3.290240        0.414009
3.292330        0.414019
3.294420        0.412913
3.296520        0.411795
3.298620        0.411043
3.300710        0.408582
3.302820        0.408130
3.304920        0.408650
3.307030        0.406625
3.309140        0.405908
3.311250        0.405624
3.313370        0.405070
3.315490        0.405534
3.317610        0.404370
3.319730        0.402358
3.321860        0.402745
3.323990        0.403701
3.326120        0.404294
3.328260        0.404889
3.330390        0.404461
3.332530        0.404852
3.334680        0.406665
3.336820        0.406900
3.338970        0.406615
3.341120        0.407022
3.343280        0.406751
3.345430        0.406538
3.347590        0.406720
3.349760        0.407302
3.351920        0.407080
3.354090        0.406637
3.356260        0.406434
3.358430        0.405198
3.360610        0.405235
3.362790        0.405123
3.364970        0.404194
3.367160        0.405220
3.369350        0.404630
3.371540        0.402123
3.373730        0.403878
3.375930        0.406217
3.378130        0.406116
3.380330        0.406817
3.382530        0.407671
3.384740        0.408549
3.386950        0.411351
3.389170        0.413813
3.391380        0.416265
3.393600        0.418803
3.395820        0.420671
3.398050        0.424323
3.400280        0.426883
3.402510        0.428367
3.404740        0.431256
3.406980        0.432233
3.409220        0.432526
3.411460        0.434740
3.413710        0.436242
3.415960        0.434921
3.418210        0.434088
3.420460        0.435199
3.422720        0.434539
3.424980        0.433581
3.427250        0.432908
3.429510        0.429227
3.431780        0.425720
3.434060        0.424781
3.436330        0.423864
3.438610        0.421792
3.440890        0.420048
3.443180        0.418043
3.445460        0.416502
3.447750        0.415893
3.450050        0.414633
3.452350        0.414132
3.454650        0.414100
3.456950        0.413236
3.459260        0.413790
3.461560        0.415190
3.463880        0.416499
3.466190        0.418368
3.468510        0.419365
3.470830        0.420147
3.473160        0.422478
3.475480        0.425354
3.477820        0.427700
3.480150        0.430965
3.482490        0.434721
3.484830        0.437091
3.487170        0.440183
3.489520        0.443270
3.491870        0.444816
3.494220        0.447409
3.496580        0.450198
3.498940        0.452248
3.501300        0.455019
3.503660        0.456412
3.506030        0.455580
3.508410        0.455451
3.510780        0.457214
3.513160        0.458787
3.515540        0.459685
3.517930        0.460846
3.520310        0.461202
3.522710        0.461234
3.525100        0.461485
3.527500        0.461341
3.529900        0.461957
3.532300        0.462762
3.534710        0.461900
3.537120        0.459466
3.539540        0.457860
3.541960        0.458028
3.544380        0.456895
3.546800        0.455407
3.549230        0.455455
3.551660        0.454645
3.554090        0.453690
3.556530        0.452782
3.558970        0.451809
3.561420        0.452161
3.563860        0.452648
3.566320        0.452654
3.568770        0.451554
3.571230        0.450551
3.573690        0.450332
3.576150        0.450773
3.578620        0.452171
3.581090        0.452741
3.583570        0.452725
3.586050        0.454190
3.588530        0.456008
3.591010        0.457204
3.593500        0.458262
3.595990        0.458999
3.598490        0.459732
3.600990        0.459657
3.603490        0.459091
3.606000        0.459172
3.608510        0.458533
3.611020        0.458800
3.613540        0.459465
3.616060        0.458118
3.618580        0.457237
3.621110        0.456258
3.623640        0.455119
3.626170        0.454512
3.628710        0.452627
3.631250        0.449935
3.633790        0.448005
3.636340        0.446242
3.638890        0.444915
3.641450        0.444176
3.644010        0.442097
3.646570        0.440275
3.649140        0.439894
3.651710        0.438082
3.654280        0.436833
3.656860        0.437614
3.659440        0.436543
3.662020        0.435192
3.664610        0.435453
3.667200        0.435747
3.669800        0.436840
3.672400        0.438483
3.675000        0.439209
3.677610        0.439268
3.680220        0.440853
3.682830        0.444388
3.685450        0.446263
3.688070        0.447037
3.690690        0.449532
3.693320        0.452476
3.695950        0.455035
3.698590        0.457054
3.701230        0.458735
3.703870        0.459882
3.706520        0.461855
3.709170        0.465184
3.711830        0.468155
3.714490        0.469575
3.717150        0.469721
3.719820        0.469667
3.722490        0.470111
3.725160        0.471243
3.727840        0.472550
3.730520        0.472870
3.733210        0.472432
3.735900        0.472755
3.738590        0.472619
3.741290        0.472624
3.743990        0.472956
3.746690        0.472100
3.749400        0.470806
3.752120        0.469429
3.754830        0.469087
3.757550        0.469391
3.760280        0.467141
3.763010        0.464319
3.765740        0.463408
3.768480        0.463153
3.771220        0.461868
3.773960        0.460087
3.776710        0.459743
3.779460        0.459444
3.782220        0.458162
3.784980        0.456632
3.787750        0.456765
3.790510        0.457452
3.793290        0.456758
3.796060        0.457039
3.798840        0.456935
3.801630        0.455430
3.804420        0.456229
3.807210        0.456531
3.810010        0.453616
3.812810        0.452377
3.815620        0.452048
3.818430        0.450314
3.821240        0.448742
3.824060        0.446387
3.826880        0.443584
3.829710        0.442513
3.832540        0.440935
3.835370        0.438375
3.838210        0.437427
3.841050        0.435503
3.843900        0.432058
3.846750        0.430655
3.849610        0.429729
3.852470        0.428302
3.855330        0.428217
3.858200        0.428525
3.861070        0.429070
3.863950        0.430889
3.866830        0.433615
3.869720        0.436614
3.872610        0.439179
3.875500        0.441542
3.878400        0.443666
3.881300        0.445074
3.884210        0.445221
3.887120        0.444643
3.890040        0.441901
3.892960        0.436111
3.895890        0.426800
3.898810        0.413457
3.901750        0.397212
3.904690        0.376202
3.907630        0.350341
3.910580        0.322095
3.913530        0.290463
3.916480        0.256559
3.919440        0.222223
3.922410        0.188236
3.925380        0.156461
3.928350        0.127992
3.931330        0.102974
3.934310        0.081204
3.937300        0.062985
3.940290        0.048396
3.943290        0.036576
3.946290        0.027408
3.949290        0.020500
3.952300        0.015028
3.955320        0.010768
3.958340        0.007743
3.961360        0.005577
3.964390        0.003888
3.967420        0.002827
3.970460        0.002194
3.973500        0.001700
3.976550        0.001392
3.979600        0.001285
3.982660        0.001207
3.985720        0.001202
3.988790        0.001286
3.991860        0.001309
3.994930        0.001231
3.998010        0.001190
4.001100        0.001140
4.004190        0.001023
4.007280        0.000857
4.010380        0.000747
